<opimrtascii>

<asciiheader>
File Version:       3
Separator:          [Tab]
Workspace Name:     
File Name:          Frame 001
Image Name:         Frame 001
Radiation Type:     Electrons
Energy:             12.00 Unknown
SSD:                1000.0 mm
SID:                1000.0 mm
Field Size Cr:      20.0 mm
Field Size In:      20.0 mm
Data Type:          Counts
Data Factor:        1.000
Data Unit:          cnt
Length Unit:        mm
Plane:              XY
No. of Columns:     32
No. of Rows:        32
Number of Bodies:   1
Operators Note:     
Gantry Angle:     0.08
</asciiheader>

<asciiheaderext>
Device Type:        MatriXX
Device Rotation:    0
Device Mounting:    table_top
Buildup Type:       none
Buildup (mm):       0.0
Serial Number:      
Date/Time:          01/01/2000 00:00:00
Measurement Mode:   UDF
Sampling Time (ms): 0
No. of Samples:     0
No. of Images:      0
Current Image:      0
Temperature (C):    0.0
Pressure (mb):      0.0
Uni. Calib. used:   UDF
Background comp.:   UDF
</asciiheaderext>

<asciibody>
Plane Position:     0.0 mm

X[mm]     	-118.0945 	-110.4755 	-102.8565 	-95.2375 	-87.6185 	-79.9995 	-72.3805 	-64.7615 	-57.1425 	-49.5235 	-41.9045 	-34.2855 	-26.6665 	-19.0475 	-11.4285 	-3.8095 	 3.8095 	11.4285 	19.0475 	26.6665 	34.2855 	41.9045 	49.5235 	57.1425 	64.7615 	72.3805 	79.9995 	87.6185 	95.2375 	102.8565 	110.4755 	118.0945 	
Y[mm]
-118.0945 	467.1467	  440.83	  531.54	  605.26	  688.79	  752.96	  819.57	  835.78	   851.1	  873.81	     895	   886.5	  883.96	  890.38	  901.63	   889.1	   885.8	  895.05	  906.77	  900.23	  898.99	   908.7	  917.87	  891.92	  866.85	  846.28	  826.27	  765.56	  674.23	  577.36	  499.18	521.5833	
-110.4755 	   436.7	  523.91	   651.2	  781.91	  915.42	 1001.01	 1074.99	 1095.57	  1109.3	 1129.65	 1150.47	 1145.33	 1146.16	 1153.56	 1170.09	 1154.52	 1147.49	 1158.45	 1173.65	 1165.64	 1157.94	 1162.84	 1178.45	  1152.7	 1135.11	 1112.03	 1087.64	 1010.28	  873.31	  719.74	  588.58	  476.99	
-102.8565 	  504.87	  637.29	  844.75	  1536.8	 2730.18	 2865.53	  2889.8	 2889.43	  2876.3	 2825.03	  2823.1	 2788.83	 2779.34	 2757.77	 2741.95	 2721.26	 2704.06	 2696.66	 2693.43	    2698	 2687.54	 2692.24	  2671.5	 2675.05	 2634.76	 2624.21	 2601.75	 2483.76	 1670.56	  949.95	  717.99	  557.03	
 -95.2375 	   597.6	  788.43	 1638.02	 24349.6	30804.59	31078.84	 31106.2	31269.48	31363.72	31368.16	31280.59	31294.68	31258.83	31262.37	31133.12	31161.22	31227.62	31249.98	31190.32	31190.71	31208.08	31230.28	31150.91	31175.25	31188.04	31146.39	30928.67	 30764.4	25349.97	  2081.3	  888.42	  660.97	
 -87.6185 	  687.21	  942.21	 3729.74	31323.71	31791.85	31955.26	32051.41	32181.91	32202.53	 32193.7	32212.37	32196.81	32192.05	32230.41	32189.72	32159.68	32166.07	32207.77	32196.21	32234.19	32261.51	32270.98	32244.65	32273.51	32295.45	32238.99	32114.23	31983.83	31570.45	 6441.67	  1079.9	  765.88	
 -79.9995 	  751.22	 1032.33	 3975.77	 31775.4	32155.82	32297.63	32314.97	32328.55	32394.28	32366.51	32308.57	32270.66	32277.39	32287.14	32222.63	32197.29	32220.74	32286.35	32241.45	32291.01	32372.33	32427.58	32357.94	32463.86	32510.48	32510.74	32430.25	32316.04	32073.92	 6927.37	 1188.72	  839.77	
 -72.3805 	  796.74	 1094.03	 4000.33	 32055.7	32357.71	32437.84	32457.26	32464.28	32424.12	32374.21	32299.14	32250.55	32181.08	32195.07	 32184.7	32129.24	32147.38	32171.64	32177.73	32229.16	32327.06	32413.56	32410.52	32480.14	32542.04	32610.81	32581.62	32536.01	32314.11	 7038.54	 1255.73	  886.22	
 -64.7615 	  832.51	 1130.41	 3960.56	32200.38	32505.45	 32518.6	32475.22	32423.29	32350.53	 32290.3	 32192.1	32116.39	32055.61	32056.31	32025.75	31975.05	31992.62	32049.71	32056.27	32091.12	32173.31	32244.41	32322.98	 32404.6	32516.36	32636.41	32635.12	32601.24	32466.36	 7143.36	 1296.47	   926.8	
 -57.1425 	  858.61	 1154.01	 3963.38	32266.26	32504.28	32473.76	 32425.1	32311.82	 32223.2	32095.04	32035.86	31948.13	31876.89	31849.06	31843.87	31802.99	31861.66	31892.97	 31882.5	31924.05	31985.12	32092.65	 32157.2	32300.93	32384.17	32533.25	32569.05	32629.13	32516.98	 7302.01	 1316.09	  950.09	
 -49.5235 	  871.76	 1171.53	 3923.51	32237.78	32470.31	 32391.2	32295.03	32153.84	32057.84	31934.04	31845.85	31732.53	31702.61	31686.68	31664.52	31607.03	31654.24	31726.24	31694.39	31697.86	31831.32	31920.69	31983.68	32110.42	32255.94	   32403	32475.29	32527.45	32477.62	 7369.13	 1326.67	   962.8	
 -41.9045 	  879.86	 1183.12	 3898.61	32197.91	32398.71	32261.81	32153.08	31977.68	31843.88	31731.02	31654.22	31564.39	31510.89	31478.41	   31517	31441.08	31503.01	31504.02	31527.67	31550.72	31645.71	31717.12	31828.54	31931.41	32058.84	32224.73	32328.31	 32408.7	32410.67	 7403.19	  1332.1	  967.26	
 -34.2855 	  886.63	 1192.65	 3863.28	32131.15	32322.46	32170.26	32034.46	31855.21	31722.93	31563.83	31532.66	31423.15	31370.89	31381.44	31340.96	31299.78	31374.56	31390.93	31406.34	31400.35	31511.74	31577.67	31647.59	31786.81	31946.99	32065.73	32178.09	32312.39	32320.95	 7456.44	    1333	  969.54	
 -26.6665 	  893.21	 1199.63	  3782.8	32046.46	32225.47	32038.91	31938.63	31718.38	31572.97	31447.15	31396.96	31307.77	 31252.5	 31228.8	31260.78	31197.37	 31257.4	31249.08	31304.85	31275.11	31364.03	31408.27	 31539.3	31641.04	31787.44	31952.74	32097.86	32224.54	 32235.1	 7526.68	 1336.97	  971.52	
 -19.0475 	  900.57	 1205.24	 3758.93	31978.49	32132.47	31970.51	31791.62	31571.31	31488.61	 31344.3	31231.39	31159.35	31133.24	31190.37	31153.23	31092.29	31200.98	31206.44	 31183.1	31185.71	 31263.1	31340.59	31422.22	31530.04	31669.89	31847.24	31973.27	32094.51	32112.82	 7552.86	 1336.55	  976.17	
 -11.4285 	  906.69	 1212.36	 3682.06	31936.31	32077.08	31861.97	31742.28	31523.03	31404.73	31266.31	31226.94	31108.97	 31106.8	31122.44	31158.94	31075.32	31143.55	 31159.3	31158.09	31115.99	31220.81	31260.59	31379.17	 31442.3	31612.09	31730.51	31902.75	32042.84	32064.18	 7510.63	 1333.92	  977.89	
  -3.8095 	  906.93	 1215.68	 3636.26	 31870.7	32051.59	31870.18	31694.05	31443.36	31402.47	31263.73	31178.17	31090.79	31095.11	31113.37	31112.66	31081.31	31140.05	31168.75	31061.04	31090.18	31166.69	31224.67	31294.55	31400.66	31558.93	31740.68	31850.41	31994.01	31990.74	 7585.53	 1329.46	  980.56	
   3.8095 	  926.57	 1219.29	    3599	31925.22	32101.52	31938.23	31774.75	31609.42	31394.57	31306.12	31231.52	31200.84	31173.17	31228.55	31294.61	31282.17	31161.71	31179.72	31227.05	31189.93	31213.27	31296.94	31351.86	31497.33	 31625.9	   31817	 31936.3	32107.45	   32086	  7672.8	 1333.12	  971.76	
  11.4285 	  920.86	 1222.49	 3551.18	31927.62	32086.41	31954.68	31781.77	31617.04	31426.61	31321.21	31248.26	31221.01	31194.45	31294.04	31317.62	31310.14	31185.72	31206.68	31221.62	31210.77	31225.32	31296.05	31353.09	31502.89	31644.81	31842.43	31957.12	32093.29	 32089.8	 7725.16	 1325.79	  968.99	
  19.0475 	  923.48	 1225.48	 3550.09	31912.41	32131.34	32007.07	31841.52	31671.52	31497.44	31387.23	31323.66	31287.57	31254.74	31329.31	31374.23	31369.66	 31228.8	31265.47	31289.89	31284.48	31255.04	31376.27	31435.36	31588.58	31680.48	31899.91	32008.77	32173.37	32089.11	  7825.3	 1313.41	  963.31	
  26.6665 	  923.38	 1227.53	 3503.68	31969.83	32185.33	32084.23	 31918.9	31730.47	31547.23	 31446.5	   31385	31345.25	31303.81	31389.18	 31401.7	31379.78	31254.69	31314.59	31298.46	31324.83	31340.43	 31436.8	31488.39	31632.47	31758.79	31965.47	32064.77	32143.72	32134.44	 7806.48	 1310.63	  958.37	
  34.2855 	  918.88	 1229.89	 3460.05	32008.85	32241.39	32128.77	 31971.5	31816.75	31614.75	 31483.3	31435.15	31407.23	31359.01	31420.67	31449.34	31422.44	31302.31	31325.17	31352.43	31390.48	31391.62	31511.81	31568.68	 31714.2	31829.24	32006.03	32131.17	32204.48	32140.95	 7822.37	 1304.14	  950.82	
  41.9045 	  922.34	 1228.54	 3428.35	32067.89	32347.86	32239.94	32094.44	31962.14	31734.11	31667.78	31583.73	31532.25	31501.75	31524.36	31524.69	31519.04	31401.39	 31455.2	 31471.3	31509.14	31514.33	31634.08	31669.25	31809.53	31964.25	32151.76	32205.02	32280.09	32232.44	 7908.75	 1298.93	  949.21	
  49.5235 	  918.77	 1230.47	 3418.06	32077.03	32410.71	32310.51	32231.27	32063.58	31867.61	31787.31	31710.13	31673.88	31604.64	31631.77	   31657	31637.43	31509.36	31554.76	31628.04	31643.18	31666.06	31739.37	31853.77	31964.96	32061.35	32220.73	32326.45	32352.09	32258.88	 7930.56	 1287.38	  944.14	
  57.1425 	  915.79	 1228.51	 3371.49	32102.28	32458.91	32406.49	32294.51	32176.91	32002.43	31920.56	31828.49	31806.04	31764.08	31798.06	 31781.6	31769.88	31645.39	31665.85	31748.38	31779.96	31807.78	31875.25	 31946.4	32087.29	32200.63	32351.84	32416.37	 32375.7	32293.12	 7891.99	 1276.62	  929.72	
  64.7615 	  900.54	 1218.13	 3307.12	32067.26	32456.51	32439.05	32378.76	32266.24	 32122.1	32050.75	31982.38	31918.51	31874.65	31883.18	31900.49	31885.82	31771.69	31783.62	31888.28	31906.12	31923.49	31988.03	32109.16	32187.23	32298.75	32400.34	32448.03	 32428.6	32266.27	 7925.31	 1261.56	  915.55	
  72.3805 	  873.07	 1194.03	 3259.06	31975.81	32395.96	32413.05	32387.51	32334.23	32178.51	32129.46	32088.75	32019.27	31983.07	31994.63	 32000.8	31989.97	31875.97	31892.78	31995.92	32008.39	32034.76	 32078.4	32160.46	32240.11	32365.89	32461.12	 32451.4	32383.07	32200.47	 7937.32	 1231.73	  886.01	
  79.9995 	  834.92	 1147.92	 3186.13	 31755.8	32232.41	 32289.3	 32325.2	32271.96	32176.56	32108.44	32084.98	 32048.6	32012.42	32012.35	32042.85	32011.42	31891.34	31896.91	32020.24	 32040.6	32026.89	32075.63	32182.05	32252.45	32310.95	32325.24	32345.51	32209.51	 32012.1	 7764.41	 1183.55	  844.03	
  87.6185 	   783.4	 1076.47	 3010.05	31412.97	31970.49	32044.61	32107.18	32099.97	32029.13	 31991.2	31975.58	31957.52	31920.05	 31929.1	31938.58	31926.98	31799.35	31805.64	 31913.8	31944.39	31940.76	31948.69	32006.03	32097.03	32122.79	32142.28	32061.24	31952.61	31734.81	 7470.17	 1108.95	  789.39	
  95.2375 	  689.56	  936.61	 1935.67	27245.47	31410.93	31523.08	31606.07	 31614.8	31600.53	31515.71	31572.21	31523.47	31535.91	 31542.3	31620.08	31582.71	31462.39	31438.85	31534.02	31571.52	31576.62	31552.89	31620.94	31687.65	31715.48	31678.43	31644.11	31483.05	30148.21	 4487.11	  965.82	  703.59	
 102.8565 	  589.76	  767.62	 1012.58	 2460.84	 7587.74	  7910.4	 7993.52	  8045.9	 8069.14	 8152.63	 8243.55	 8342.87	  8376.5	 8585.38	 8638.46	 8642.24	 8751.04	  9011.1	 9205.79	 9419.21	 9656.23	 9927.07	10015.57	10161.25	10346.62	10593.75	10649.53	10704.03	 5272.33	 1107.63	  768.73	     595	
 110.4755 	  504.02	   635.2	   760.8	  950.73	 1137.08	 1246.96	 1293.54	 1319.88	 1338.94	 1358.84	 1347.19	  1346.2	  1346.6	 1358.56	 1348.76	 1345.99	 1358.57	 1378.41	 1352.72	 1348.36	 1346.55	 1354.92	 1336.18	 1327.33	 1305.13	 1288.72	 1225.71	 1133.35	  973.09	  783.06	  616.47	  506.72	
 118.0945 	559.6233	  539.65	  605.93	  710.13	  829.91	  912.43	  943.57	  970.76	  993.05	 1023.21	 1005.66	  996.62	   997.5	 1016.71	  998.57	  993.55	 1011.78	 1024.14	 1006.98	  996.02	  995.58	 1006.96	  987.63	  973.28	  950.65	  933.44	  877.35	  807.69	  723.41	  622.05	  512.46	545.2167	
</asciibody>

</opimrtascii>
