<opimrtascii>

<asciiheader>
File Version:       3
Separator:          [Tab]
Workspace Name:     
File Name:          Frame 001
Image Name:         Frame 001
Radiation Type:     Photons
Energy:             6.00 Unknown
SSD:                739.0 mm
SID:                1000.0 mm
Field Size Cr:      20.0 mm
Field Size In:      20.0 mm
Data Type:          Counts
Data Factor:        1.000
Data Unit:          cnt
Length Unit:        mm
Plane:              XY
No. of Columns:     32
No. of Rows:        32
Number of Bodies:   1
Operators Note:     
Gantry Angle:     0.23
</asciiheader>

<asciiheaderext>
Device Type:        MatriXX
Device Rotation:    0
Device Mounting:    table_top
Buildup Type:       none
Buildup (mm):       0.0
Serial Number:      
Date/Time:          01/01/2000 00:00:00
Measurement Mode:   UDF
Sampling Time (ms): 0
No. of Samples:     0
No. of Images:      0
Current Image:      0
Temperature (C):    0.0
Pressure (mb):      0.0
Uni. Calib. used:   UDF
Background comp.:   UDF
</asciiheaderext>

<asciibody>
Plane Position:     0.0 mm

X[mm]     	-118.0945 	-110.4755 	-102.8565 	-95.2375 	-87.6185 	-79.9995 	-72.3805 	-64.7615 	-57.1425 	-49.5235 	-41.9045 	-34.2855 	-26.6665 	-19.0475 	-11.4285 	-3.8095 	 3.8095 	11.4285 	19.0475 	26.6665 	34.2855 	41.9045 	49.5235 	57.1425 	64.7615 	72.3805 	79.9995 	87.6185 	95.2375 	102.8565 	110.4755 	118.0945 	
Y[mm]
-118.0945 	530.5933	  522.44	  625.81	  698.47	   813.5	  949.43	 1156.81	 1213.16	 1264.49	 1337.82	 1400.01	 1411.06	 1435.15	 1484.99	 1529.14	 1503.85	 1493.95	  1501.2	 1509.27	  1440.4	 1397.89	 1377.18	 1355.45	 1269.51	 1193.45	 1124.46	  979.11	  827.51	  698.67	  612.11	  558.19	554.5367	
-110.4755 	   496.3	  573.04	  696.05	  804.23	  959.47	 1136.33	 1375.64	  1461.2	 1535.94	 1615.28	  1689.6	 1708.13	 1743.95	 1788.17	 1841.91	 1817.68	 1806.12	 1810.33	 1815.44	 1757.34	  1696.2	 1660.24	 1635.56	 1536.77	  1448.4	 1344.54	 1168.43	  969.34	  803.11	  683.32	  600.94	  504.48	
-102.8565 	  529.72	  627.56	  768.64	  922.31	 1134.73	 1381.68	 1655.75	 1791.62	 1890.52	 1987.59	 2066.55	 2097.61	 2144.05	 2195.26	 2231.23	 2226.47	 2218.93	 2221.59	 2204.92	  2147.6	 2094.11	 2053.67	  1990.8	 1892.67	 1777.25	 1639.41	 1398.06	 1144.47	  928.52	  766.31	  647.38	  543.18	
 -95.2375 	  580.62	  692.75	  860.74	 1070.22	    1357	 1698.36	 2053.73	 2252.81	  2391.7	 2503.23	 2600.11	 2642.31	 2691.78	 2747.21	 2788.14	 2785.48	 2781.55	 2771.84	 2762.08	  2698.8	 2629.37	 2578.18	 2504.34	 2379.11	 2236.04	 2034.96	 1716.17	 1371.98	 1077.75	  857.38	  709.53	  586.96	
 -87.6185 	  622.63	  757.69	  953.93	 1227.72	 1622.07	 2105.32	    2617	 2928.74	 3119.23	  3256.1	 3363.04	 3418.64	  3477.9	 3538.68	 3570.05	  3573.1	 3576.41	 3560.41	 3534.86	 3471.28	 3411.55	 3344.34	 3246.12	 3099.59	 2910.96	 2599.83	 2119.84	 1637.89	 1238.09	  958.44	  773.28	  635.16	
 -79.9995 	  674.76	  827.15	 1061.74	 1410.56	 1949.11	 2815.61	 4165.42	 4800.21	 5077.15	 5240.97	 5367.71	 5413.81	 5483.14	 5537.05	 5570.93	 5569.22	 5558.34	 5545.01	  5502.3	 5434.52	 5357.69	 5273.14	  5140.7	 4962.18	 4677.36	  4054.4	  2810.6	  1962.3	 1422.42	  1066.6	   843.9	  683.36	
 -72.3805 	   779.8	  954.24	 1221.45	  1649.2	 2409.86	 6437.53	38465.62	 40726.5	40881.53	40861.31	40808.71	40753.23	40648.47	40568.44	40497.78	40422.24	 40385.8	40254.06	40173.83	40103.07	40036.94	39980.02	39817.02	39611.97	39286.02	37121.06	 6636.74	 2421.41	 1654.57	 1229.03	  966.58	  787.67	
 -64.7615 	   853.7	 1042.33	 1341.12	 1826.98	 2747.58	  8117.2	49878.05	53071.49	53442.86	 53591.9	53586.63	53577.66	53569.67	53609.35	53623.75	53614.54	53664.61	53700.37	53672.23	53679.87	53726.94	53755.31	53709.13	53629.67	53277.17	 50308.7	 8438.41	 2771.78	 1839.59	 1351.33	 1053.74	  862.74	
 -57.1425 	  897.47	 1099.01	 1416.48	 1946.27	 2952.96	 8573.55	50512.76	53795.52	54225.38	54312.36	54394.79	54376.89	54369.68	54402.42	54466.41	54456.08	54577.97	54544.83	54512.35	54512.66	54496.32	54541.45	54498.59	54489.45	54012.01	50848.13	 8787.02	 2978.88	 1964.26	 1431.27	 1108.77	  907.41	
 -49.5235 	   931.8	 1144.89	 1481.29	 2042.52	 3098.85	 8842.47	 50696.8	 54022.5	54440.81	54565.25	 54649.8	54587.08	54650.52	54655.09	54648.36	54619.84	54710.12	54792.22	54723.74	54715.41	54824.97	54825.73	 54746.8	54673.67	54311.46	50981.06	 8937.93	 3111.99	 2054.29	 1495.37	 1151.71	  941.29	
 -41.9045 	  960.66	 1182.72	    1527	 2107.75	 3201.95	 9049.24	50795.93	54073.37	54456.18	54636.07	 54707.3	54696.24	54674.51	54648.63	54729.04	54677.49	54786.17	54773.05	54798.74	54821.24	54926.32	54923.12	54905.55	 54765.5	54366.63	50970.75	 8972.85	 3198.38	  2121.7	 1549.12	 1192.78	  973.16	
 -34.2855 	  986.05	 1215.23	 1573.52	 2171.94	  3278.6	 9214.28	50872.45	54128.94	54552.82	 54669.4	54786.75	54705.36	54678.06	54700.74	54634.88	54583.82	54721.34	54747.82	54789.37	54821.74	54902.75	54961.97	54921.33	54816.67	54401.59	50926.73	  8981.2	 3279.06	 2177.83	 1591.68	 1220.38	     998	
 -26.6665 	  1003.7	 1239.02	 1601.38	 2207.55	 3331.76	 9348.42	50975.45	54140.43	 54580.1	54716.24	54781.04	54715.54	54561.19	54502.85	 54416.5	54275.33	54371.79	54454.33	54719.62	54770.89	54831.45	54929.33	54990.97	54797.17	54352.08	50899.23	 8969.26	 3320.28	 2217.56	 1620.79	 1248.95	 1016.46	
 -19.0475 	 1016.25	 1261.21	 1629.71	  2247.5	 3379.62	    9473	50940.24	 54109.2	 54624.2	54704.95	54690.94	54612.56	54374.12	54312.15	54109.78	 54010.6	54182.29	54191.75	54331.26	54600.97	54776.74	54940.94	54960.96	54845.49	 54396.3	50865.26	 8920.81	 3357.74	 2242.76	 1641.44	 1264.48	 1035.73	
 -11.4285 	 1029.31	 1273.37	 1641.99	 2265.32	 3417.09	 9593.72	51013.59	54177.34	   54651	54703.66	54771.31	54569.75	54304.13	54152.78	54172.07	54009.63	54143.46	54167.05	54248.85	54413.38	54805.86	54939.61	55020.88	54842.66	54451.38	50785.59	 8873.51	 3380.46	 2264.14	 1656.96	  1274.7	 1043.88	
  -3.8095 	 1030.79	 1277.48	 1657.66	 2284.54	 3440.68	 9717.47	51059.07	54157.45	54708.39	54801.25	 54779.7	54546.53	54222.01	54185.26	54022.06	53835.79	53942.11	54142.98	54161.77	54301.94	54783.41	54952.88	54969.49	54878.86	54442.12	50829.67	 8832.17	 3394.71	 2270.96	 1658.52	 1277.82	 1052.13	
   3.8095 	 1052.79	 1281.04	 1671.17	 2288.81	    3454	 9797.77	51139.95	54327.17	54691.45	54826.98	54884.95	54712.02	54328.88	54369.45	54246.83	53928.76	 53809.8	54121.46	54357.24	54464.17	54837.53	 55035.2	55044.96	 54993.4	54610.04	50885.26	 8796.15	 3387.63	 2270.47	    1657	 1280.79	  1041.3	
  11.4285 	 1041.85	 1279.73	 1670.01	 2284.09	 3441.06	 9867.41	51198.05	54366.89	54744.74	54823.73	54906.26	54777.76	54392.01	54523.64	54407.92	54196.62	54057.96	54279.17	54392.07	54486.13	54915.42	55097.04	55084.49	55046.22	54664.08	50855.22	    8721	 3384.73	 2264.21	 1646.32	 1278.29	 1040.16	
  19.0475 	 1037.19	 1273.32	 1655.87	    2270	 3424.43	 9934.11	51265.52	   54366	54781.46	54890.94	55000.84	54876.47	54659.75	54532.12	54557.11	54535.88	54318.32	 54429.5	54539.95	54688.58	55001.09	 55141.6	 55125.5	55090.18	54707.57	50888.04	 8629.35	 3355.86	 2250.81	 1639.68	 1265.87	  1031.9	
  26.6665 	 1025.61	 1259.51	 1637.43	 2248.87	 3398.78	 9978.39	51342.03	54391.86	54740.89	54949.15	55034.28	55006.01	54846.46	   54737	54618.34	54515.25	54412.62	54516.95	54661.65	54959.64	55062.61	55159.51	55141.31	55096.87	54721.56	50869.09	 8516.55	 3306.77	  2212.3	 1611.89	 1253.03	 1019.62	
  34.2855 	 1003.12	  1235.5	 1606.23	 2209.78	 3356.19	  9997.8	51421.38	54411.07	54716.11	54917.26	55029.11	 55064.2	   54977	55040.44	54901.73	54834.54	 54695.2	54789.58	 54956.6	55084.86	55067.99	55166.83	55191.39	55073.12	54597.83	50693.79	 8377.82	 3252.65	 2171.94	 1582.57	 1227.18	 1002.47	
  41.9045 	  984.03	 1212.55	 1578.71	 2169.62	 3303.63	 9997.26	51501.06	54447.16	54754.76	55027.74	55107.88	55054.98	55133.74	55194.36	55091.42	55226.26	   55021	55129.27	55192.89	55233.16	55222.02	55243.44	55202.29	55083.34	54751.54	50793.13	  8257.4	 3196.15	 2127.12	  1538.5	 1203.09	  983.92	
  49.5235 	  960.63	 1179.55	 1533.19	 2109.54	 3233.17	 9929.08	51550.95	54433.47	54696.57	54988.46	55069.98	 55072.4	   55180	 55232.7	 55249.5	55274.62	55011.04	55172.53	55222.78	55263.55	55278.93	55240.24	55193.94	   55149	54689.46	50717.83	 8085.43	 3113.73	 2067.61	 1501.97	 1162.77	   959.5	
  57.1425 	  932.24	 1140.33	 1477.14	 2031.04	 3116.19	 9838.19	 51452.7	54376.64	54626.23	54909.62	 54918.3	55001.63	55103.86	55196.58	55200.48	55212.19	55032.88	 55057.7	55126.03	55185.54	 55157.7	55104.08	55019.65	55006.26	54625.01	50673.42	 7877.21	 2990.07	 1986.08	 1440.52	  1120.2	  922.22	
  64.7615 	  890.67	 1092.29	 1402.91	 1928.97	 2953.28	 9628.84	51235.25	 54018.4	 54364.2	54526.06	54590.52	54633.29	54708.65	54785.92	54840.94	54855.63	54706.12	54679.02	54777.91	54786.56	 54774.9	54787.55	   54806	 54663.2	54316.13	50355.49	  7540.1	 2830.65	 1884.78	 1373.21	 1074.47	  890.98	
  72.3805 	  844.06	 1035.36	  1314.6	 1791.59	 2711.32	 9099.53	49947.23	52465.92	52716.08	52864.15	52984.47	52988.28	53049.41	53126.74	53169.41	53182.83	53089.87	53088.32	53161.83	53171.13	53215.62	53230.54	53184.14	53099.35	52880.58	49216.51	 6917.69	 2591.46	 1746.73	 1290.77	 1011.72	  838.48	
  79.9995 	  736.24	  907.74	 1156.92	 1561.72	 2251.23	 4537.71	15386.51	16648.74	17028.78	17316.94	17500.78	17683.89	17849.92	17957.91	18149.02	18210.73	 18278.5	18369.65	18462.74	18552.92	18595.69	 18639.8	18661.33	18624.41	18431.39	16905.27	  4099.2	 2177.82	 1530.08	 1136.12	  886.62	   734.7	
  87.6185 	  671.68	  817.17	 1027.93	 1346.24	 1851.63	 2430.97	 3204.08	 3625.55	 3879.94	 4033.65	 4148.12	  4222.9	 4281.26	 4356.14	 4378.63	    4398	 4412.61	  4415.3	  4379.8	 4325.24	 4260.74	 4195.85	 4074.44	 3922.01	 3651.85	 3236.72	 2421.58	  1794.2	 1326.94	  1001.3	  791.84	  653.85	
  95.2375 	  618.04	  752.58	  921.72	 1174.91	 1547.52	 1924.11	  2362.4	 2612.76	 2791.35	 2932.64	 3020.26	 3078.43	 3130.63	 3198.22	 3208.92	 3223.74	 3243.91	 3247.58	 3215.59	 3152.42	 3101.22	 3048.52	 2934.01	 2813.43	 2620.46	 2420.93	 1910.88	 1498.57	 1157.47	  906.27	  725.44	  609.76	
 102.8565 	  576.46	  690.09	  821.61	 1011.05	 1298.46	 1564.72	 1878.93	 2044.99	 2189.77	 2300.65	 2371.69	 2412.79	 2469.53	 2521.91	 2540.99	 2547.49	 2564.08	 2572.45	 2537.76	 2477.65	 2430.44	 2393.03	 2300.97	 2191.55	 2042.49	 1940.17	 1545.17	 1247.28	  998.06	   808.8	  660.83	  562.36	
 110.4755 	  532.66	  637.44	  730.13	  876.29	 1096.89	 1297.75	 1526.79	 1651.45	  1765.3	 1866.89	 1911.52	 1947.99	 1995.49	 2049.46	  2051.3	 2057.29	 2080.29	  2105.7	 2049.16	 2002.79	 1964.43	 1937.33	 1847.32	 1766.13	 1645.99	 1587.69	 1261.71	 1050.53	  871.76	  730.72	   601.8	  522.18	
 118.0945 	  588.34	  594.92	  654.44	   755.7	  943.23	 1094.59	 1275.86	 1364.96	 1454.23	 1554.88	 1578.67	 1602.25	 1641.74	 1705.37	 1696.08	 1696.48	 1723.59	 1739.58	 1705.12	 1648.68	 1618.32	 1609.89	 1525.62	 1450.46	 1351.46	 1316.67	 1044.95	  884.68	  755.24	  655.28	  549.89	557.9567	
</asciibody>

</opimrtascii>
